 SWICS EFFICIENCIES FOR SI

 incident ion: Z=14, M= 27.977 amu
 carbon foil thickness= 2.5 microg/squarecm
 detector threshold= 40.0 keV, electronic FWHM= 12.0 keV
 electrons needed to trigger MCPs: TH1=1.10, TH2=1.10
 constants for sec. electrons: CONST1=0.740, CONST2=0.288

     ETOT    EPERM    EFOIL    ETOTF    EMEAS    FWHMT    PROB1   PROBSE    PROB2   PROBST    PROBT    PROB3    P3/P1    P2*P3
    [keV]  [keV/u]    [keV]    [keV]    [keV]    [keV]

 2797.700  100.000   29.342 2768.358 2401.509  108.616  0.99977  0.99989  0.99878  0.99967  1.00000  0.99967  0.99990  0.99845
 2517.930   90.000   27.548 2490.382 2140.960  105.983  0.99960  0.99985  0.99792  0.99955  1.00000  0.99955  0.99995  0.99748
 2266.137   81.000   25.789 2240.348 1908.550  103.417  0.99933  0.99979  0.99656  0.99940  1.00000  0.99940  1.00007  0.99596
 2039.523   72.900   24.086 2015.437 1699.159  100.149  0.99890  0.99972  0.99450  0.99920  1.00000  0.99920  1.00029  0.99370
 1835.571   65.610   22.456 1813.115 1512.566   96.980  0.99824  0.99963  0.99154  0.99892  1.00000  0.99892  1.00068  0.99047
 1652.014   59.049   20.911 1631.103 1345.482   93.915  0.99723  0.99950  0.98742  0.99855  1.00000  0.99855  1.00132  0.98599
 1486.813   53.144   19.458 1467.355 1194.688   90.950  0.99578  0.99932  0.98193  0.99806  1.00000  0.99806  1.00228  0.98002
 1338.131   47.830   18.101 1320.030 1060.596   88.081  0.99375  0.99909  0.97489  0.99740  1.00000  0.99740  1.00367  0.97235
 1204.318   43.047   16.843 1187.475  941.369   85.305  0.99100  0.99878  0.96614  0.99652  1.00000  0.99652  1.00556  0.96277
 1083.886   38.742   15.680 1068.206  834.622   82.082  0.98741  0.99837  0.95561  0.99534  1.00000  0.99534  1.00803  0.95116
  975.498   34.868   14.611  960.886  738.940   78.332  0.98287  0.99782  0.94330  0.99379  1.00000  0.99379  1.01111  0.93745
  877.948   31.381   13.632  864.316  654.030   74.760  0.97729  0.99708  0.92927  0.99174  1.00000  0.99174  1.01478  0.92159
  790.153   28.243   12.737  777.416  578.694   71.357  0.97063  0.99610  0.91360  0.98903  1.00000  0.98903  1.01895  0.90357
  711.138   25.419   11.922  699.216  511.855   68.116  0.96289  0.99481  0.89641  0.98548  1.00000  0.98548  1.02346  0.88339
  640.024   22.877   11.149  628.875  449.896   65.031  0.95363  0.99310  0.87376  0.98086  1.00000  0.98086  1.02855  0.85704
  576.021   20.589   10.447  565.574  395.192   62.094  0.94334  0.99085  0.84926  0.97487  1.00000  0.97487  1.03342  0.82792
  518.419   18.530    9.814  508.605  346.908   58.905  0.93214  0.98791  0.82312  0.96718  1.00000  0.96718  1.03759  0.79610
  466.577   16.677    9.243  457.334  304.309   55.850  0.92014  0.98408  0.79553  0.95740  1.00000  0.95740  1.04049  0.76164
  419.920   15.009    8.726  411.194  266.633   52.853  0.90749  0.97915  0.76668  0.94508  1.00000  0.94508  1.04143  0.72458
  377.928   13.509    8.257  369.670  233.017   49.585  0.89430  0.97282  0.73670  0.92979  1.00000  0.92979  1.03968  0.68497
  340.135   12.158    7.920  332.214  203.372   46.532  0.88435  0.96479  0.70560  0.91106  1.00000  0.91106  1.03021  0.64285
  306.121   10.942    7.614  298.508  177.308   43.688  0.87365  0.95471  0.67352  0.88851  1.00000  0.88851  1.01701  0.59843
  275.509    9.848    7.319  268.191  154.364   40.787  0.86245  0.94220  0.64051  0.86186  1.00000  0.86186  0.99931  0.55203
  247.958    8.863    7.035  240.923  134.158   37.753  0.85076  0.92689  0.60662  0.83098  1.00000  0.83098  0.97676  0.50409
  223.162    7.977    6.763  216.400  116.432   34.987  0.83859  0.90843  0.57192  0.79600  1.00000  0.79599  0.94921  0.45525
  200.846    7.179    6.501  194.346  100.881   32.170  0.82597  0.88652  0.53651  0.75725  1.00000  0.75724  0.91680  0.40627
  180.762    6.461    6.249  174.513   87.272   29.536  0.81291  0.86097  0.50055  0.71535  0.99992  0.71529  0.87991  0.35804
  162.685    5.815    6.007  156.679   75.352   27.190  0.79944  0.83172  0.46423  0.67112  0.99890  0.67038  0.83856  0.31121
  146.417    5.233    5.774  140.643   64.930   25.107  0.78560  0.79883  0.42784  0.62550  0.99031  0.61944  0.78849  0.26502
  131.775    4.710    5.550  126.225   55.838   23.154  0.77139  0.76254  0.39169  0.57947  0.94638  0.54840  0.71092  0.21480
  118.598    4.239    5.335  113.262   47.914   21.443  0.75686  0.72324  0.35613  0.53394  0.80759  0.43120  0.56973  0.15356
  106.738    3.815    5.129  101.609   41.172   19.955  0.74203  0.68144  0.32150  0.48965  0.55501  0.27176  0.36624  0.08737
   96.064    3.434    4.930   91.134   35.317   18.669  0.72693  0.63771  0.28816  0.44716  0.27737  0.12403  0.17062  0.03574
   86.458    3.090    4.739   81.719   30.221   17.564  0.71159  0.59271  0.25639  0.40680  0.09491  0.03861  0.05426  0.00990
   77.812    2.781    4.555   73.257   25.790   16.620  0.69604  0.54708  0.22646  0.36872  0.02204  0.00813  0.01168  0.00184
   70.031    2.503    4.379   65.652   22.061   15.818  0.68031  0.50144  0.19853  0.33293  0.00379  0.00126  0.00185  0.00025
   63.028    2.253    4.209   58.818   18.897   15.142  0.66442  0.45638  0.16531  0.29937  0.00052  0.00015  0.00023  0.00003
   56.725    2.028    4.046   52.679   16.145   14.575  0.64841  0.41242  0.14253  0.26797  0.00006  0.00002  0.00002  0.00000
   51.052    1.825    3.889   47.163   13.754   14.102  0.63231  0.37002  0.12190  0.23863  0.00001  0.00000  0.00000  0.00000
   45.947    1.642    3.739   42.208   11.680   13.709  0.61614  0.32959  0.10343  0.21132  0.00000  0.00000  0.00000  0.00000
   41.352    1.478    3.594   37.759    9.990   13.386  0.59993  0.30369  0.09070  0.19377  0.00000  0.00000  0.00000  0.00000
   37.217    1.330    3.455   33.762    8.527   13.120  0.58370  0.27788  0.07892  0.17663  0.00000  0.00000  0.00000  0.00000
   33.495    1.197    3.321   30.175    7.256   12.903  0.56747  0.25174  0.06794  0.15953  0.00000  0.00000  0.00000  0.00000
   30.146    1.078    3.192   26.954    6.169   12.663  0.55128  0.22573  0.05784  0.14267  0.00000  0.00000  0.00000  0.00000
   27.131    0.970    3.069   24.063    5.251   12.531  0.53514  0.20035  0.04871  0.12633  0.00000  0.00000  0.00000  0.00000
   24.418    0.873    2.950   21.469    4.456   12.425  0.51906  0.17610  0.04058  0.11081  0.00000  0.00000  0.00000  0.00000
   21.976    0.786    2.835   19.141    3.766   12.339  0.50308  0.15339  0.03348  0.09633  0.00000  0.00000  0.00000  0.00000
   19.779    0.707    2.726   17.053    3.167   12.270  0.48721  0.13252  0.02737  0.08308  0.00000  0.00000  0.00000  0.00000
   17.801    0.636    2.620   15.181    2.650   12.214  0.47145  0.11365  0.02220  0.07114  0.00000  0.00000  0.00000  0.00000
   16.021    0.573    2.518   13.502    2.205   12.170  0.45583  0.09636  0.01778  0.06024  0.00000  0.00000  0.00000  0.00000
   14.419    0.515    2.421   11.998    1.824   12.134  0.44036  0.08041  0.01401  0.05022  0.00000  0.00000  0.00000  0.00000
