 SWICS EFFICIENCIES FOR NE

 incident ion: Z=10, M= 19.992 amu
 carbon foil thickness= 2.5 microg/squarecm
 detector threshold= 40.0 keV, electronic FWHM= 12.0 keV
 electrons needed to trigger MCPs: TH1=1.10, TH2=1.10
 constants for sec. electrons: CONST1=0.515, CONST2=0.300

     ETOT    EPERM    EFOIL    ETOTF    EMEAS    FWHMT    PROB1   PROBSE    PROB2   PROBST    PROBT    PROB3    P3/P1    P2*P3
    [keV]  [keV/u]    [keV]    [keV]    [keV]    [keV]

 1999.200  100.000   23.336 1975.864 1733.555   72.781  0.98948  0.99978  0.99606  0.99936  1.00000  0.99936  1.00999  0.99542
 1799.280   90.000   22.080 1777.200 1547.456   71.367  0.98641  0.99970  0.99403  0.99914  1.00000  0.99914  1.01291  0.99318
 1619.352   81.000   20.828 1598.524 1381.255   69.978  0.98249  0.99960  0.99119  0.99886  1.00000  0.99886  1.01667  0.99006
 1457.417   72.900   19.600 1437.817 1230.759   68.114  0.97754  0.99947  0.98733  0.99848  1.00000  0.99848  1.02142  0.98583
 1311.675   65.610   18.410 1293.265 1096.561   66.301  0.97145  0.99930  0.98223  0.99798  1.00000  0.99798  1.02731  0.98024
 1180.508   59.049   17.269 1163.239  976.372   64.541  0.96408  0.99906  0.97571  0.99731  1.00000  0.99731  1.03446  0.97309
 1062.457   53.144   16.185 1046.271  868.092   62.830  0.95535  0.99875  0.96763  0.99642  1.00000  0.99642  1.04299  0.96416
  956.211   47.830   15.164  941.047  771.698   61.167  0.94522  0.99833  0.95786  0.99525  1.00000  0.99525  1.05293  0.95331
  860.590   43.047   14.207  846.383  685.893   59.551  0.93368  0.99779  0.94637  0.99371  1.00000  0.99371  1.06429  0.94041
  774.531   38.742   13.316  761.215  608.866   57.601  0.92080  0.99706  0.93315  0.99168  1.00000  0.99168  1.07698  0.92539
  697.078   34.868   12.490  684.588  539.695   55.300  0.90666  0.99610  0.91828  0.98903  1.00000  0.98903  1.09084  0.90821
  627.370   31.381   11.727  615.643  478.252   53.099  0.89142  0.99484  0.90184  0.98557  1.00000  0.98557  1.10563  0.88883
  564.633   28.243   11.025  553.608  423.682   50.993  0.87523  0.99318  0.88396  0.98110  1.00000  0.98110  1.12096  0.86725
  508.170   25.419   10.380  497.790  375.123   48.979  0.85824  0.99102  0.86457  0.97533  1.00000  0.97533  1.13642  0.84324
  457.353   22.877    9.763  447.590  329.757   47.054  0.83976  0.98821  0.83953  0.96796  1.00000  0.96796  1.15267  0.81264
  411.617   20.589    9.197  402.420  289.697   45.213  0.82096  0.98457  0.81288  0.95864  1.00000  0.95864  1.16770  0.77925
  370.456   18.530    8.684  361.771  254.332   43.183  0.80202  0.97990  0.78478  0.94694  1.00000  0.94694  1.18069  0.74314
  333.410   16.677    8.218  325.192  223.125   41.240  0.78311  0.97394  0.75539  0.93246  1.00000  0.93246  1.19072  0.70437
  300.069   15.009    7.794  292.275  195.437   39.317  0.76434  0.96641  0.72483  0.91477  1.00000  0.91477  1.19681  0.66306
  270.062   13.509    7.406  262.656  170.580   37.258  0.74635  0.95698  0.69318  0.89350  1.00000  0.89350  1.19716  0.61936
  243.056   12.158    7.110  235.946  148.679   35.324  0.73153  0.94530  0.66047  0.86835  1.00000  0.86835  1.18703  0.57352
  218.750   10.942    6.835  211.915  129.440   33.511  0.71648  0.93104  0.62681  0.83918  1.00000  0.83918  1.17125  0.52600
  196.875    9.848    6.570  190.305  112.521   31.631  0.70123  0.91384  0.59229  0.80603  1.00000  0.80603  1.14945  0.47740
  177.188    8.863    6.316  170.872   97.649   29.686  0.68581  0.89343  0.55701  0.76917  1.00000  0.76917  1.12155  0.42844
  159.469    7.977    6.071  153.398   84.595   27.901  0.67026  0.86959  0.52113  0.72911  0.99992  0.72905  1.08772  0.37993
  143.522    7.179    5.836  137.686   73.136   25.949  0.65459  0.84221  0.48483  0.68656  0.99868  0.68565  1.04745  0.33243
  129.170    6.461    5.610  123.560   63.119   24.122  0.63884  0.81132  0.44838  0.64236  0.98799  0.63465  0.99343  0.28456
  116.253    5.815    5.392  110.861   54.375   22.496  0.62304  0.77709  0.41206  0.59743  0.93381  0.55788  0.89542  0.22988
  104.628    5.233    5.183   99.444   46.748   21.046  0.60721  0.73983  0.37620  0.55265  0.77488  0.42823  0.70525  0.16110
   94.165    4.710    4.983   89.182   40.101   19.631  0.59139  0.69995  0.34114  0.50879  0.50485  0.25686  0.43434  0.08763
   84.748    4.239    4.790   79.959   34.316   18.407  0.57558  0.65800  0.30723  0.46644  0.23358  0.10895  0.18929  0.03347
   76.274    3.815    4.604   71.669   29.424   17.354  0.55982  0.61454  0.27476  0.42599  0.07562  0.03221  0.05754  0.00885
   68.646    3.434    4.426   64.220   25.166   16.453  0.54414  0.57018  0.24400  0.38768  0.01687  0.00654  0.01202  0.00160
   61.782    3.090    4.254   57.527   21.465   15.687  0.52854  0.52552  0.21514  0.35156  0.00270  0.00095  0.00179  0.00020
   55.603    2.781    4.089   51.514   18.253   15.039  0.51305  0.48112  0.18834  0.31760  0.00033  0.00011  0.00020  0.00002
   50.043    2.503    3.931   46.112   15.600   14.495  0.49769  0.43751  0.16369  0.28575  0.00004  0.00001  0.00002  0.00000
   45.039    2.253    3.779   41.260   13.339   14.041  0.48248  0.39514  0.13497  0.25591  0.00000  0.00000  0.00000  0.00000
   40.535    2.028    3.632   36.903   11.373   13.663  0.46742  0.35443  0.11534  0.22803  0.00000  0.00000  0.00000  0.00000
   36.481    1.825    3.492   32.990    9.668   13.351  0.45254  0.31572  0.09780  0.20207  0.00000  0.00000  0.00000  0.00000
   32.833    1.642    3.356   29.477    8.203   13.094  0.43785  0.28129  0.08288  0.17928  0.00000  0.00000  0.00000  0.00000
   29.550    1.478    3.226   26.324    7.002   12.884  0.42335  0.25849  0.07237  0.16416  0.00000  0.00000  0.00000  0.00000
   26.595    1.330    3.101   23.494    5.959   12.712  0.40906  0.23520  0.06252  0.14894  0.00000  0.00000  0.00000  0.00000
   23.935    1.197    2.981   20.954    5.054   12.572  0.39499  0.21186  0.05343  0.13382  0.00000  0.00000  0.00000  0.00000
   21.542    1.078    2.866   18.676    4.291   12.323  0.38115  0.18893  0.04516  0.11907  0.00000  0.00000  0.00000  0.00000
   19.388    0.970    2.755   16.633    3.643   12.257  0.36753  0.16687  0.03777  0.10496  0.00000  0.00000  0.00000  0.00000
   17.449    0.873    2.648   14.801    3.082   12.204  0.35415  0.14609  0.03129  0.09171  0.00000  0.00000  0.00000  0.00000
   15.704    0.786    2.545   13.159    2.594   12.161  0.34100  0.12686  0.02568  0.07951  0.00000  0.00000  0.00000  0.00000
   14.134    0.707    2.447   11.687    2.170   12.127  0.32810  0.10937  0.02091  0.06845  0.00000  0.00000  0.00000  0.00000
   12.720    0.636    2.352   10.368    1.805   12.100  0.31544  0.09369  0.01690  0.05857  0.00000  0.00000  0.00000  0.00000
   11.448    0.573    2.261    9.187    1.492   12.079  0.30302  0.07891  0.01342  0.04927  0.00000  0.00000  0.00000  0.00000
   10.303    0.515    2.164    8.139    1.227   12.062  0.29095  0.06591  0.01056  0.04112  0.00000  0.00000  0.00000  0.00000
